LabVIEW Measurement,
Writer_Version,2
Reader_Version,2
Separator,Comma
Decimal_Separator,.
Multi_Headings,No
X_Columns,One
Time_Pref,Absolute
Operator,Administrator
Date,2016/04/11
Time,08:51:24.7669301487315045251
***End_of_Header***,
,
Channels,1,
Samples,4,
Date,2016/04/11,
Time,08:51:24.859375,
Y_Unit_Label,Volts,
X_Dimension,Time,
X0,0.0000000000000000E+0,
Delta_X,0.010000,
***End_of_Header***,,
X_Value,Voltage,Comment
0.000000,-0.075330
0.010000,-0.073720
0.020000,-0.074042
0.030000,-0.073076
0.156250,-0.072432
0.166250,-0.071143
0.176250,-0.071143
0.186250,-0.069533
0.234375,-0.070177
0.244375,-0.068567
0.254375,-0.069533
0.264375,-0.067923
0.328125,-0.067279
0.338125,-0.067601
0.348125,-0.066635
0.358125,-0.066313
0.390625,-0.066313
0.400625,-0.065024
0.410625,-0.065669
0.420625,-0.063414
0.484375,-0.063414
0.494375,-0.063414
0.504375,-0.062126
0.514375,-0.062448
0.578125,-0.061482
0.588125,-0.061804
0.598125,-0.059872
0.608125,-0.060194
0.671875,-0.058906
0.681875,-0.059550
0.691875,-0.057939
0.701875,-0.058261
0.765625,-0.056973
0.775625,-0.057939
0.785625,-0.055685
0.795625,-0.056329
0.875000,-0.055041
0.885000,-0.055685
0.895000,-0.053753
0.905000,-0.054397
0.968750,-0.053109
0.978750,-0.053753
0.988750,-0.052465
0.998750,-0.053109
1.062500,-0.051176
1.072500,-0.051498
1.082500,-0.050532
1.092500,-0.050854
1.171875,-0.048922
1.181875,-0.049566
1.191875,-0.048278
1.201875,-0.048600
1.265625,-0.047956
1.275625,-0.046990
1.285625,-0.046668
1.295625,-0.046024
1.359375,-0.045057
1.369375,-0.045701
1.379375,-0.044091
1.389375,-0.044735
1.468750,-0.043125
1.478750,-0.043769
1.488750,-0.042159
1.498750,-0.042481
1.578125,-0.041837
1.588125,-0.041193
1.598125,-0.040549
1.608125,-0.039905
1.671875,-0.039583
1.681875,-0.038938
1.691875,-0.038616
1.701875,-0.038294
1.781250,-0.037972
1.791250,-0.036040
1.801250,-0.037006
1.811250,-0.035718
1.859375,-0.034752
1.869375,-0.035074
1.879375,-0.034108
1.889375,-0.035074
1.968750,-0.033464
1.978750,-0.032819
1.988750,-0.032497
1.998750,-0.032497
2.078125,-0.032175
2.088125,-0.030565
2.098125,-0.030887
2.108125,-0.030243
2.171875,-0.029277
2.181875,-0.028955
2.191875,-0.028311
2.201875,-0.028633
2.281250,-0.028311
2.291250,-0.026378
2.301250,-0.027023
2.311250,-0.025412
2.375000,-0.025734
2.385000,-0.025090
2.395000,-0.024446
2.405000,-0.023802
2.468750,-0.023158
2.478750,-0.024124
2.488750,-0.022514
2.498750,-0.022514
2.562500,-0.021548
2.572500,-0.021548
2.582500,-0.019293
2.592500,-0.020904
2.671875,-0.018649
2.681875,-0.019615
2.691875,-0.018327
2.701875,-0.018649
2.765625,-0.017039
2.775625,-0.017683
2.785625,-0.016073
2.795625,-0.016073
2.875000,-0.015107
2.885000,-0.015751
2.895000,-0.014141
2.905000,-0.014463
2.968750,-0.013496
2.978750,-0.013496
2.988750,-0.012530
2.998750,-0.012208
3.062500,-0.011242
3.072500,-0.011564
3.082500,-0.010598
3.092500,-0.009954
3.171875,-0.009310
3.181875,-0.009632
3.191875,-0.008022
3.201875,-0.007700
3.265625,-0.007700
3.275625,-0.007700
3.285625,-0.006089
3.295625,-0.007055
3.359375,-0.004801
3.369375,-0.005445
3.379375,-0.004479
3.389375,-0.004801
3.468750,-0.003191
3.478750,-0.003191
3.488750,-0.002225
3.498750,-0.002225
3.562500,-0.000937
3.572500,-0.001903
3.582500,-0.000614
3.592500,-0.000614
3.671875,0.000996
3.681875,0.000352
3.691875,0.001962
3.701875,0.000996
3.765625,0.002606
3.775625,0.002606
3.785625,0.003894
3.795625,0.003572
3.875000,0.004538
3.885000,0.004860
3.895000,0.006149
3.905000,0.005504
3.968750,0.007115
3.978750,0.006149
3.988750,0.007759
3.998750,0.007115
4.062500,0.009047
4.072500,0.007437
4.082500,0.009691
4.092500,0.009047
4.171875,0.011301
4.181875,0.009691
4.191875,0.011945
4.201875,0.011301
4.265625,0.012912
4.275625,0.011945
4.285625,0.013878
4.295625,0.013556
4.359375,0.014522
4.369375,0.014200
4.379375,0.016132
4.389375,0.024505
4.468750,0.044795
4.478750,0.057033
4.488750,0.027404
4.498750,0.023217
4.562500,-0.008988
4.572500,-0.015107
4.582500,0.017098
4.592500,0.004538
4.671875,-0.005123
4.681875,0.000996
4.691875,0.010013
4.701875,-0.007055
4.765625,0.038032
4.775625,0.015810
4.785625,0.022251
4.795625,0.034167
4.859375,-0.011242
4.869375,0.041896
4.879375,-0.008022
4.889375,-0.030887
4.968750,-0.011886
4.978750,-0.024124
4.988750,0.012268
4.998750,0.031913
5.062500,0.015810
5.072500,-0.014785
5.082500,0.017098
5.092500,0.000674
5.171875,0.018709
5.181875,0.019675
5.191875,0.040930
5.201875,0.022251
5.265625,0.015488
5.275625,-0.003513
5.285625,0.011301
5.295625,0.044473
5.375000,-0.015429
5.385000,-0.011242
5.395000,0.038676
5.405000,0.012912
5.468750,0.034811
5.478750,0.044151
5.488750,0.006471
5.498750,0.036743
5.562500,-0.009632
5.572500,-0.001581
5.582500,-0.008344
5.592500,0.029658
5.671875,-0.012208
5.681875,0.020641
5.691875,0.014200
5.701875,-0.002225
5.765625,0.012268
5.775625,0.042218
5.785625,-0.017361
5.795625,-0.225083
5.875000,-0.010920
5.885000,-0.013819
5.895000,-0.023802
5.905000,0.044473
5.968750,0.022573
5.978750,0.002606
5.988750,0.007759
5.998750,0.037065
6.062500,0.034167
6.072500,0.027082
6.082500,0.033523
6.092500,-0.011886
6.171875,0.032235
6.181875,-0.015429
6.191875,0.028048
6.201875,-0.000614
6.265625,0.009369
6.275625,0.031591
6.285625,0.043506
6.295625,-0.013174
6.375000,0.037065
6.385000,-0.012208
6.395000,-0.012208
6.405000,0.010335
6.468750,0.032557
6.478750,0.002606
6.488750,0.033523
6.498750,0.028370
6.562500,0.042540
6.572500,0.011623
6.582500,0.102442
6.592500,0.043184
6.671875,0.010335
6.681875,0.034489
6.691875,-0.017361
6.701875,0.029658
6.765625,0.026760
6.775625,0.016776
6.785625,-0.009632
6.795625,-0.013174
6.875000,0.043184
6.885000,-0.000937
6.895000,0.037387
6.905000,0.042540
6.968750,0.015810
6.978750,0.029980
6.988750,0.031269
6.998750,0.020319
7.062500,0.009369
7.072500,-0.006411
7.082500,-0.012530
7.092500,0.018064
7.171875,0.022895
7.181875,-0.013819
7.191875,0.035455
7.201875,-0.011886
7.265625,0.010657
7.275625,0.044795
7.285625,0.003572
7.295625,0.045761
7.375000,0.041574
7.385000,0.030302
7.395000,0.013878
7.405000,0.019031
7.468750,-0.007055
7.478750,0.039642
7.488750,0.023539
7.498750,0.042540
7.562500,0.011945
7.572500,0.007437
7.582500,0.002284
7.592500,0.011945
7.671875,0.037710
7.681875,0.012590
7.691875,0.029336
7.701875,0.035777
7.765625,0.038032
7.775625,-0.010920
7.785625,-0.011886
7.795625,0.036743
7.859375,-0.004157
7.869375,-0.017683
7.879375,0.012590
7.889375,0.011301
7.968750,0.025150
7.978750,-0.000292
7.988750,0.021607
7.998750,0.055422
8.062500,-0.022192
8.072500,0.011945
8.082500,0.031591
8.092500,0.018064
8.171875,-0.012852
8.181875,0.012590
8.191875,-0.014141
8.201875,-0.010276
8.265625,0.039642
8.275625,-0.008344
8.285625,-0.014463
8.295625,0.042862
8.375000,0.025794
8.385000,0.044795
8.395000,-0.000937
8.405000,-0.003513
8.468750,-0.012530
8.478750,0.036743
8.488750,-0.003835
8.498750,-0.007378
8.562500,0.053812
8.572500,-0.013819
8.582500,0.038354
8.592500,0.043184
8.671875,0.010657
8.681875,-0.008666
8.691875,-0.001903
8.701875,0.022573
8.765625,0.011623
8.775625,-0.006733
8.785625,-0.007378
8.795625,0.045439
8.875000,-0.010920
8.885000,-0.003513
8.895000,0.044151
8.905000,-0.012208
8.968750,-0.005123
8.978750,-0.010920
8.988750,-0.059228
8.998750,-0.010276
9.062500,0.040286
9.072500,0.021929
9.082500,0.020319
9.092500,-0.001903
9.171875,0.011945
9.181875,0.006149
9.191875,0.034167
9.201875,-0.008022
9.265625,-0.001259
9.275625,0.036099
9.285625,-0.016395
9.295625,0.045439
9.375000,0.002284
9.385000,0.017098
9.395000,0.017098
9.405000,0.036421
9.468750,0.009047
9.478750,-0.007055
9.488750,0.023539
9.498750,0.015488
9.562500,0.027726
9.572500,0.045761
9.582500,-0.009310
9.592500,0.043828
9.671875,0.021929
9.681875,0.012590
9.691875,0.011945
9.701875,-0.006733
9.765625,0.005504
9.775625,0.016776
9.785625,-0.012530
9.795625,0.003250
9.859375,0.009047
9.869375,0.012590
9.879375,0.044151
9.889375,0.045761
9.968750,0.022251
9.978750,0.001962
9.988750,-0.005445
9.998750,0.008403
10.064375,0.045117
10.074375,-0.012852
10.084375,0.026760
10.094375,0.029014
10.375000,0.028370
10.385000,0.034167
10.395000,0.021285
10.405000,0.022573
10.453125,0.039642
10.463125,-0.012208
10.473125,0.009047
10.483125,0.010013
10.531250,0.021607
10.541250,0.030624
10.551250,0.030624
10.561250,0.048015
10.609375,0.032557
10.619375,-0.001581
10.629375,-0.006411
10.639375,-0.010598
10.687500,0.029658
10.697500,-0.018327
10.707500,0.008081
10.717500,0.017420
10.765625,0.022573
10.775625,0.012590
10.785625,0.024183
10.795625,0.042540
10.859375,-0.010920
10.869375,0.037387
10.879375,0.024828
10.889375,0.004538
10.968750,2.963812E-5
10.978750,0.028048
10.988750,0.009691
10.998750,0.022251
11.062500,-0.011886
11.072500,0.025794
11.082500,-0.012208
11.092500,0.016132
11.171875,0.005182
11.181875,0.037710
11.191875,-0.001259
11.201875,0.028692
11.265625,0.032879
11.275625,0.008725
11.285625,-0.012852
11.295625,0.013234
11.375000,0.024183
11.385000,0.000674
11.395000,-0.005445
11.405000,0.029658
11.468750,0.004216
11.478750,0.042218
11.488750,0.031913
11.498750,0.007759
11.562500,0.019031
11.572500,0.044795
11.582500,0.036421
11.592500,0.030302
11.671875,-0.011242
11.681875,0.037387
11.691875,0.011301
11.701875,0.022251
11.765625,-0.016395
11.775625,0.003250
11.785625,-0.009632
11.795625,0.032879
11.859375,0.029336
11.869375,0.034167
11.879375,0.034489
11.889375,-0.008988
11.968750,0.030946
11.978750,-0.005445
11.988750,0.022573
11.998750,-0.012208
12.062500,0.019031
12.072500,0.023539
12.082500,0.018386
12.092500,0.023539
12.171875,0.024505
12.181875,0.011623
12.191875,-0.005767
12.201875,0.046727
12.375000,0.007437
12.385000,0.050592
12.395000,0.017420
12.405000,0.005827
12.453125,0.001962
12.463125,0.041896
12.473125,-0.014785
12.483125,-0.012208
12.531250,0.011623
12.541250,0.019675
12.551250,0.043828
12.561250,-0.008666
12.609375,0.039320
12.619375,0.024505
12.629375,-0.013819
12.639375,0.042218
12.687500,-0.001903
12.697500,0.043184
12.707500,-0.062770
12.717500,0.033201
12.771250,-0.013496
12.781250,-0.016073
12.791250,0.044151
12.801250,-0.000937
13.266875,0.022573
13.276875,0.000996
13.286875,0.024183
13.296875,0.040930
13.390625,-0.011564
13.400625,-0.011886
13.410625,-0.002869
13.420625,0.026438
13.484375,0.025150
13.494375,0.030946
13.504375,-0.009310
13.514375,-0.009310
13.578125,0.047049
13.588125,0.024828
13.598125,-0.276933
13.608125,-0.017361
13.671875,0.033201
13.681875,-0.005123
13.691875,0.029014
13.701875,0.024505
13.780625,0.018386
13.790625,0.022573
13.800625,0.046727
13.810625,0.042862
14.109375,0.004538
14.119375,0.000996
14.129375,-0.017361
14.139375,-0.003835
14.234375,0.017098
14.244375,0.044151
14.254375,-0.001581
14.264375,0.044795
14.359375,0.189395
14.369375,0.021929
14.379375,0.025794
14.389375,-0.018005
14.437500,-0.018327
14.447500,0.043506
14.457500,0.005504
14.467500,0.016776
14.531250,-0.012852
14.541250,0.038998
14.551250,0.023539
14.561250,-0.012208
14.625000,0.033523
14.635000,-0.018971
14.645000,0.006471
14.655000,0.010335
14.718750,0.000352
14.728750,-0.004157
14.738750,-0.007700
14.748750,0.025472
14.812500,0.020641
14.822500,0.029658
14.832500,-0.005123
14.842500,0.002606
14.890625,0.026438
14.900625,0.238025
14.910625,0.024828
14.920625,0.033523
14.968750,0.022251
14.978750,0.041574
14.988750,0.026438
14.998750,0.043506
15.234375,0.005182
15.244375,0.034167
15.254375,0.192616
15.264375,-0.006733
15.328125,0.022573
15.338125,-0.001903
15.348125,0.011301
15.358125,-0.014141
15.500000,0.000996
15.510000,0.042862
15.520000,-0.015107
15.530000,0.027726
15.609375,0.047049
15.619375,0.032879
15.629375,0.051558
15.639375,-0.005123
15.687500,-0.012208
15.697500,0.023217
15.707500,-0.015751
15.717500,-0.000937
15.765625,0.003250
15.775625,-0.021870
15.785625,0.017098
15.795625,-0.005767
15.859375,-0.006089
15.869375,-0.003835
15.879375,-0.011886
15.889375,-0.012530
15.984375,0.035133
15.994375,0.031591
16.004375,0.039964
16.014375,-0.016073
16.062500,0.038032
16.072500,0.002606
16.082500,-0.008988
16.092500,0.010979
16.171875,0.000352
16.181875,0.038032
16.191875,0.029336
16.201875,0.011623
16.281250,0.017420
16.291250,-0.003835
16.301250,0.047049
16.311250,-0.017683
16.453125,0.039642
16.463125,0.006793
16.473125,-0.008666
16.483125,-0.013174
16.542500,-0.015107
16.552500,0.040930
16.562500,0.038998
16.572500,-0.010598
16.703125,0.027726
16.713125,0.005827
16.723125,-0.016395
16.733125,-0.014785
17.000000,0.021285
17.010000,0.046083
17.020000,-0.016073
17.030000,-0.004157
17.153125,-0.011242
17.163125,0.018064
17.173125,0.020963
17.183125,0.043506
17.359375,0.008725
17.369375,0.030302
17.379375,0.002928
17.389375,-0.008022
17.437500,-0.005767
17.447500,0.011945
17.457500,0.031269
17.467500,-0.006411
17.515625,0.001640
17.525625,0.019031
17.535625,0.015810
17.545625,-0.202862
17.593750,0.025150
17.603750,0.048981
17.613750,-0.014463
17.623750,0.041896
17.671875,-0.002869
17.681875,-0.011242
17.691875,-0.008988
17.701875,-0.007055
17.765625,0.036099
17.775625,0.023217
17.785625,0.045117
17.795625,0.037387
17.875000,2.963812E-5
17.885000,0.011945
17.895000,0.039964
17.905000,0.042540
17.968750,0.019675
17.978750,-0.011564
17.988750,0.006471
17.998750,-0.001903
18.062500,-0.002547
18.072500,0.042862
18.082500,-0.012852
18.092500,-0.012852
18.171875,-0.009954
18.181875,0.019675
18.191875,0.015166
18.201875,0.002928
18.265625,0.018064
18.275625,0.019997
18.285625,-0.005445
18.295625,-0.015107
18.359375,-0.007378
18.369375,0.034489
18.379375,0.044473
18.389375,0.033845
18.468750,0.039964
18.478750,0.036421
18.488750,-0.004801
18.498750,0.027082
18.562500,-0.008988
18.572500,-0.009310
18.582500,0.038032
18.592500,0.033523
18.671875,0.016454
18.681875,0.044151
18.691875,0.038998
18.701875,0.021285
18.765625,0.040930
18.775625,-0.001903
18.785625,0.042862
18.795625,0.037710
18.875000,0.024828
18.885000,0.040286
18.895000,0.016776
18.905000,0.012590
18.968750,0.023861
18.978750,0.014844
18.988750,0.037387
18.998750,0.027082
19.062500,0.036743
19.072500,-0.011242
19.082500,0.013878
19.092500,0.020641
19.171875,0.020963
19.181875,0.021285
19.191875,0.015810
19.201875,0.038032
19.265625,0.037710
19.275625,-0.000614
19.285625,-0.010920
19.295625,0.015810
19.375000,-0.008666
19.385000,0.000996
19.395000,0.037710
19.405000,-0.000292
19.468750,-0.012852
19.478750,-0.015107
19.488750,0.006471
19.498750,0.017742
19.562500,0.023539
19.572500,-0.010920
19.582500,0.024505
19.592500,-0.014785
19.671875,-0.012530
19.681875,0.027404
19.691875,0.004216
19.701875,0.043184
19.765625,0.029014
19.775625,0.018709
19.785625,-0.104637
19.795625,-0.007378
19.859375,0.001962
19.869375,0.038354
19.879375,-0.005123
19.889375,0.011945
19.968750,-0.014785
19.978750,-0.003191
19.988750,0.039320
19.998750,0.005182
20.078125,-0.014463
20.088125,-0.003835
20.098125,-0.007378
20.108125,-0.014463
20.171875,0.040930
20.181875,0.031591
20.191875,-0.000614
20.201875,0.033845
20.265625,-0.012530
20.275625,0.036743
20.285625,0.046083
20.295625,-0.009632
20.375000,0.045117
20.385000,0.008081
20.395000,0.020319
20.405000,0.009691
20.468750,0.003894
20.478750,0.009369
20.488750,0.032557
20.498750,0.015810
20.562500,0.019997
20.572500,0.042218
20.582500,0.033845
20.592500,-0.018649
20.671875,0.001318
20.681875,0.031591
20.691875,0.035133
20.701875,0.029014
20.765625,0.010335
20.775625,0.037387
20.785625,0.037065
20.795625,0.045761
20.875000,-0.010276
20.885000,-0.011564
20.895000,-0.014463
20.905000,-0.009954
20.968750,0.026760
20.978750,-0.012530
20.988750,-0.013496
20.998750,0.029014
21.062500,0.017420
21.072500,0.032557
21.082500,-0.014785
21.092500,0.045117
21.171875,-0.009954
21.181875,-0.013496
21.191875,0.035133
21.201875,0.033201
21.265625,-0.017361
21.275625,0.030302
21.285625,-0.000937
21.295625,-0.002225
21.375000,0.023861
21.385000,-0.014785
21.395000,0.041896
21.405000,0.015810
21.468750,-0.001581
21.478750,-0.015429
21.488750,0.021607
21.498750,0.018064
21.562500,0.014844
21.572500,0.009047
21.582500,-0.009954
21.592500,0.013878
21.671875,0.041252
21.681875,2.963812E-5
21.691875,-0.002869
21.701875,0.000352
21.765625,0.006149
21.775625,-0.016073
21.785625,0.026438
21.795625,0.041252
21.859375,0.043506
21.869375,0.013556
21.879375,0.026116
21.889375,0.045439
21.968750,0.047693
21.978750,0.043184
21.988750,-0.011886
21.998750,0.054134
22.062500,-0.007055
22.072500,0.043506
22.082500,-0.011886
22.092500,0.019675
22.171875,-0.008666
22.181875,-0.000937
22.191875,-0.013496
22.201875,-0.006733
22.265625,0.025794
22.275625,0.045761
22.285625,0.003894
22.295625,0.042218
22.359375,0.043184
22.369375,0.006793
22.379375,0.023539
22.389375,0.022251
22.468750,0.008725
22.478750,-0.015751
22.488750,0.008403
22.498750,0.039642
22.562500,0.019675
22.572500,0.013878
22.582500,-0.009632
22.592500,0.019997
22.671875,0.006793
22.681875,-0.008666
22.691875,0.013234
22.701875,-0.007378
22.765625,0.016776
22.775625,0.014522
22.785625,0.024828
22.795625,0.012912
22.875000,-0.003191
22.885000,-0.006733
22.895000,0.032557
22.905000,0.008403
22.968750,-0.004801
22.978750,-0.045701
22.988750,0.047371
22.998750,-0.007055
23.062500,-0.014141
23.072500,0.027404
23.082500,-0.006089
23.092500,0.035777
23.171875,0.003894
23.181875,0.001640
23.191875,-0.014785
23.201875,0.038998
23.265625,-0.000937
23.275625,0.013234
23.285625,0.000352
23.295625,-0.000937
23.375000,-0.010920
23.385000,-0.009954
23.395000,0.042862
23.405000,0.009691
23.468750,0.017098
23.478750,-0.007055
23.488750,-0.016717
23.498750,-0.011564
23.562500,0.004860
23.572500,-0.015751
23.582500,0.009047
23.592500,0.028692
23.671875,0.018709
23.681875,0.043184
23.691875,-0.013819
23.701875,-0.001259
23.765625,-0.005123
23.775625,0.030946
23.785625,-0.007700
23.795625,-0.009954
23.875000,0.039642
23.885000,0.021607
23.895000,0.010979
23.905000,0.029014
23.968750,0.011301
23.978750,0.039642
23.988750,0.010979
23.998750,-0.003835
24.062500,2.963812E-5
24.072500,0.038354
24.082500,0.027082
24.092500,0.031913
24.171875,-0.014141
24.181875,0.044795
24.191875,0.006471
24.201875,-0.017039
24.265625,0.013878
24.275625,-0.014463
24.285625,0.015810
24.295625,0.040930
24.375000,0.037710
24.385000,-0.016073
24.395000,-0.004801
24.405000,0.008403
24.468750,0.004216
24.478750,-0.006411
24.488750,-0.006411
24.498750,0.045117
24.562500,0.031913
24.572500,0.028370
24.582500,0.045117
24.592500,-0.011242
24.671875,-0.011564
24.681875,0.053490
24.691875,0.036099
24.701875,0.046405
24.765625,0.041896
24.775625,-0.014785
24.785625,0.037065
24.795625,0.015488
24.859375,0.014844
24.869375,0.018386
24.879375,0.033845
24.889375,-0.015107
24.968750,-0.011886
24.978750,-0.013174
24.988750,-0.002225
24.998750,0.042218
25.062500,0.002928
25.072500,-0.007055
25.082500,-0.002225
25.092500,-0.002869
25.171875,0.028048
25.181875,-0.008022
25.191875,-0.010920
25.201875,-0.016073
25.265625,0.044795
25.275625,0.008403
25.285625,0.044473
25.295625,0.034167
25.359375,-0.012852
25.369375,0.048337
25.379375,0.022573
25.389375,0.018386
25.468750,0.005182
25.478750,-0.000937
25.488750,0.010335
25.498750,-0.012208
25.562500,0.014522
25.572500,0.001962
25.582500,0.035133
25.592500,0.006793
